Impedance (Ohms)
6933.2219937931495
6937.675709764551
6950.476415903365
6945.700427090611
6933.7436159022245
6937.342469195735
6951.689045636348
6941.849759910106
6929.82217025795
6946.613447300295
6936.932345626875
6935.777439916663
6935.216060858317
6952.344481470979
6941.0947524380945
6933.690296954401
6953.346040229233
6935.031241293706
6924.930963291325
6943.308065826512
6937.835411162946
6943.174546188607
6943.223713735377
6944.557615527808
6935.041079752067
6942.570138901046
6938.406109734366
6936.56420978314
6948.258153754266
6925.14803182715
6950.058559116318
6947.840696895675
6939.777900415993
6953.429923734216
6919.185376422382
6952.999943133337
6941.271819813434
6928.4952594588785
6951.7733876095335
6939.451477067916
6941.766175678185
6938.9132776560355
6951.445627592095
6942.587616010802
6926.291343972073
6940.366717435733
6944.063795857325
6937.75262587694
6935.525571696123
6947.073365820308
6937.75262587694
6926.716467117322
6950.142283847289
6956.569875943828
6945.448430801041
6924.581287976244
6954.176648641562
6944.298827049192
6945.129497552968
6942.022238864654
6948.496080093535
6938.329489067898
6934.547169595732
6947.756975694911
6941.0947524380945
6936.36246617109
6938.808345441908
6958.047937000556
6938.246190514325
6937.356676914983
6943.728680188554
6941.070935419092
6938.085766984122
6939.880496157603
6946.307701282587
6939.70413030418
6944.5641750587465
6949.824317300027
6932.980629109924
6937.987452860689
6946.027772883553
6941.766175678185
6937.250626422106
6953.3527643659245
6942.420317821216
6929.982060745676
6938.822859591459
6954.426841411646
6940.599587512908
6933.013381865469
6942.800807653669
6938.822859591459
6933.4172124331435
6950.68425648202
6937.082683461441
6933.652549070081
6946.941160979959
6946.934256449301
6940.951794462355
6942.485813701261
6944.504543642877
6936.4387047659375
6934.568485143571
6941.020305220767
6953.6864018152755
6938.495857271964
6922.221542407345
6949.890879653223
6944.7252074336975
6932.603986006802
6946.841514878758
6949.730682985923
6932.048794114491
6934.563002852974
6957.124865348576
6944.214677336705
6940.389435919751
6938.798649564878
6932.916628084396
6944.236559147596
6956.489654963252
6939.553621975884
6955.25070819909
6940.136549114026
6935.8612436661515
6945.061799483605
6931.9383806320475
6946.0353509726365
6933.724899723291
6926.2685467237425
6951.435559659514
6950.798159194171
6938.168861534464
6933.1672627396
6948.4779211716705
6938.89217979148
6929.6617773444705
6940.707875320573
6946.598406731631
6944.0461486133445
6937.265685612855
6949.736838827793
6942.24336111596
6941.4391143876555
6943.634914513966
6948.655952447754
6926.147839439715
6934.3554374592695
6948.983556990574
6924.088821032163
6948.296518968028
6945.707805236172
6937.250626422106
6959.454979563559
6940.84170914675
6936.187596334006
6951.132704800067
6943.736489198663
6926.467004714393
6942.9575460284905
6951.632221215105
6928.988430347927
6934.379185415877
6956.569875943828
6939.647757956698
6936.864569997418
6948.4036343455755
6941.118271984954
6930.942248722418
6938.3978825553895
6950.378251642134
6930.224811265048
6935.4592034437865
6941.168209638347
6950.5464446762535
6935.345617571251
6933.422810697956
6949.544461560565
6939.970380273087
6943.560663696407
6949.8718331814325
6941.514964667178
6926.133325804783
6940.757208774916
6954.14119986351
6943.325627976852
6935.709163493091
6960.924231055641
6940.471462416763
6943.9089498552385
6933.673915721334
6950.804557045411
6948.496080093535
6936.419768678684
6952.61258796549
6932.013445410221
6945.280050840734
6948.3454967601565
6937.48254883423
6931.919244149528
