Impedance (Ohms)
7415.426420953779
7383.820484506821
7390.80906363953
7392.005690515814
7390.792003644056
7376.062845775376
7370.014165006181
7349.081187029637
7362.916169824575
7346.815702896625
7348.077926597829
7321.960781785183
7266.187279861449
7801.984042148901
7407.411776105958
7360.4032325863955
7411.8831079665015
7420.269614169187
7367.510190278118
7377.191392856101
7380.547025276981
7352.949102857406
7362.151938860509
7332.721697629753
7324.421057367545
7318.660753448464
7311.191713290891
7327.105713107435
7342.218588272774
7340.948064190136
7337.244063997519
7319.85758746469
7302.412464796791
7335.9459406945425
7341.818165438256
7318.378229066745
7310.683407796057
7311.097822904209
7290.539119576692
7327.436345320353
7325.103287545986
7288.440589089817
7315.0715637147405
7314.648110587733
7289.151566873535
7296.5024261198205
7285.759701621776
7278.02987226769
7275.564650592129
7276.276164996924
7262.631436298655
7267.6983841548545
7268.02443401501
7263.7353878334625
7250.569326587476
7239.672764463518
7221.819841671576
7233.005957646524
7248.034107887281
7235.4702187684015
7229.598984843014
7253.165703492087
7235.907657964957
7176.480018708285
7245.160167478267
7223.613204015126
7214.232301457769
7214.676330594276
7197.382088688957
7195.036396390642
7166.548997925927
7206.678023013863
7184.473258538156
7175.530199789914
7162.800258188469
7111.353439731875
7410.568448623809
7224.8553009969955
7213.982376128142
7224.944721432425
7203.606614622648
7181.381342658136
7151.710939019742
7189.131971176965
7187.786122595711
7183.399019979139
7155.582232150967
7184.329871237225
7175.410917893902
7150.154903103665
7141.754976183548
7151.736752023065
7143.49316604227
7122.5384494100035
7138.939467666624
7111.974532567615
7202.506097876661
7191.864330260596
7172.89477702113
7172.999454773931
7150.263556934935
7164.622575464362
7158.360555420018
7133.593110654279
7124.1594617236815
7147.077943612592
7129.902642593739
7127.833169319
7118.518404077105
7121.312532895461
7111.599146334487
7079.8397494963
7141.587260456807
7142.155094437992
7029.858566018985
7112.578063204595
7128.665481078968
7128.7325851828255
7100.024522032679
7105.781925916749
7111.21154728507
7095.944865217096
7081.986287284935
7104.135396682167
7100.296100728787
7088.258893023569
7070.321789232986
7095.557233297584
7111.444965720001
7098.959093344442
7080.889954220519
7076.679127335762
7078.734076360786
7066.119830626138
7071.170899669549
7077.5474477175185
7063.9206129775785
7057.4886184101915
7053.877517333494
7061.10451885865
7038.375765714131
7053.485012452081
7045.943515041269
7047.759698512489
7045.060520972096
7063.821851678137
7044.941402384299
7034.347067182878
7056.386751188638
7041.482565009348
7005.368979737195
7025.524949873689
7037.026478588443
7021.479065015898
7033.451161326913
7026.789194949851
7009.6451847755325
7023.574626599568
7016.568167419782
7011.361571568045
7028.532964056733
7020.983464638373
6989.28424820811
7035.108637347851
7020.314935060976
6945.630644122019
7014.065378521076
7068.409196485698
6964.760987754181
6981.6685991968825
6982.799359956113
6971.195039505976
7002.752375548266
6986.172478611948
6981.559109978589
6989.414406738556
6990.11434375799
6968.031857321362
6980.278341541143
6986.429520716351
6980.933639755267
6979.2856818617165
6964.325333343837
6954.87136247521
6966.506911560084
6967.577018811663
6950.013749098118
6956.043245432933
6969.878789266161
6955.3326037447005
6948.16748934492
6958.277592598378
6950.812031193064
6947.683050360429
6951.796676903276
6953.77456834507
6932.11166395154
6934.426226880248
6923.439649566492
6924.305396599077
