Impedance (Ohms)
7442.900556534345
7422.182705779431
7410.462368980967
7410.978052510286
7422.847303352091
7391.7878630283285
7391.8581208964315
7401.450472380464
7381.6536647599605
7361.35103561272
7372.266606675165
7345.238608276444
7258.092371268349
7900.9700819251475
7462.621998585884
7543.40083042374
7414.046455241611
7406.938415654137
7412.097931544156
7406.642409487089
7389.859825755544
7393.50864233781
7380.980953452679
7367.808104598641
7360.417053710481
7342.1814723555835
7339.888331001014
7316.597501430526
7378.099070695976
7364.996223080523
7345.014799670522
7359.790732049012
7337.704444865432
7353.00554133995
7342.667312566186
7330.336670355812
7346.535223851197
7327.488322225579
7339.058869294003
7330.162351290185
7306.649206772968
7314.470170253209
7325.957405180606
7299.198333213236
7302.110488743964
7302.94391992319
7303.323773525225
7299.669387727932
7280.887959618726
7273.128808147664
7274.774351710271
7290.283180452149
7279.267978739795
7265.007927172811
7246.738663336409
7255.255707911734
7257.274608325129
7249.141544092952
7238.5616928492045
7251.131855528518
7238.619094801093
7274.422489792206
7216.539543407855
7153.700835973507
7240.02807668925
7247.375058921455
7228.682643501063
7218.200960281461
7197.381845277614
7190.385244207057
7188.022600511202
7222.834971068339
7221.842017410318
7217.163932351065
7199.356059303808
7156.334379792609
7332.590823660947
7298.09880692353
7233.516381313591
7218.559728266957
7201.199689650685
7197.397512167156
7188.484250434552
7188.789523467506
7198.471136939481
7177.654764525011
7170.828838798449
7191.1443381716845
7176.3751665698765
7174.328859975284
7158.4886555301455
7145.176182742189
7138.5666181471015
7126.998184028497
7116.548131103291
7095.320860111278
7140.767249247061
7179.771310723622
7159.602528053077
7172.465424959877
7148.278173745066
7151.809763738384
7142.6277729256235
7145.846287876966
7141.285778021857
7135.90363555509
7141.741874993674
7148.968451452695
7137.284503224418
7121.9830638122285
7129.6882663939305
7096.162065247586
7090.247790750389
7166.570122263124
7102.286667263856
7084.522588528412
7092.228179609841
7107.3875583358995
7113.543989167046
7103.657042868488
7105.457872573588
7089.512353152154
7094.214848318834
7097.584622481593
7094.38223656875
7082.785073353239
7076.215593005904
7089.666169071476
7082.711266290979
7090.635864917236
7097.268033368802
7092.241306609324
7079.953612143
7073.646186536753
7073.849034387769
7070.808567301004
7062.865476731452
7048.02534435494
7055.9684534076605
7041.628592485574
7040.961772435393
7045.717815580594
7031.846921171672
7038.439213992804
7037.9098273085165
7056.510747267927
7045.70801749334
7031.727212814036
7031.141821555527
7022.122074152228
7028.063682571607
7021.548673175141
7026.044547506595
7005.423336901642
7021.76776336974
7020.742265914923
7006.49335324638
6993.392031742307
7011.032101768624
7010.98154094861
7002.821978549258
7014.25101829917
6992.080050329465
6986.545675573646
6997.300650190112
6996.240022076569
7089.02906029194
7004.538354012256
6918.168771596998
7006.6962969394035
6970.551143368066
6971.614930639404
6982.9304700826215
6979.513431230969
6971.92847576978
6974.167640920124
6969.5644556597945
6966.06168059893
6959.936662813947
6968.152056861476
6971.614930639404
6969.3422193537435
6962.051369715613
6953.229218950114
6947.611555620342
6947.982747207099
6937.539958374692
6941.236230584564
6943.0322542410295
6945.083768830985
6943.5722074857085
6920.884058872598
6925.145193425292
6924.939635391986
6920.209530037764
6937.161699937267
6921.953727776497
6908.212187185523
6909.139197931415
6915.724622271279
